Time (s), X (m), Y (m), Vx (m/s), Vy (m/s), Fx (N), Fy (N), Delta (m)
     0.000     0.000     1.000     1.000     0.000     0.000     0.000     0.000
     0.000     0.001     1.000     1.000    -0.010     0.001     0.000   -19.620
     0.000     0.002     1.000     1.000    -0.020     0.002     0.000   -19.620
     0.000     0.003     1.000     1.000    -0.029     0.003     0.000   -19.620
     0.000     0.004     1.000     1.000    -0.039     0.004     0.000   -19.620
     0.000     0.005     1.000     1.000    -0.049     0.005     0.000   -19.620
     0.000     0.006     1.000     1.000    -0.059     0.006     0.000   -19.620
     0.000     0.007     1.000     1.000    -0.069     0.007     0.000   -19.620
     0.000     0.008     1.000     1.000    -0.078     0.008     0.000   -19.620
     0.000     0.009     1.000     1.000    -0.088     0.009     0.000   -19.620
     0.000     0.010     0.999     1.000    -0.098     0.010     0.000   -19.620
     0.000     0.011     0.999     1.000    -0.108     0.011     0.000   -19.620
     0.000     0.012     0.999     1.000    -0.118     0.012     0.000   -19.620
     0.000     0.013     0.999     1.000    -0.128     0.013     0.000   -19.620
     0.000     0.014     0.999     1.000    -0.137     0.014     0.000   -19.620
     0.000     0.015     0.999     1.000    -0.147     0.015     0.000   -19.620
     0.000     0.016     0.999     1.000    -0.157     0.016     0.000   -19.620
     0.000     0.017     0.998     1.000    -0.167     0.017     0.000   -19.620
     0.000     0.018     0.998     1.000    -0.177     0.018     0.000   -19.620
     0.000     0.019     0.998     1.000    -0.186     0.019     0.000   -19.620
     0.000     0.020     0.998     1.000    -0.196     0.020     0.000   -19.620
     0.000     0.021     0.998     1.000    -0.206     0.021     0.000   -19.620
     0.000     0.022     0.998     1.000    -0.216     0.022     0.000   -19.620
     0.000     0.023     0.997     1.000    -0.226     0.023     0.000   -19.620
     0.000     0.024     0.997     1.000    -0.235     0.024     0.000   -19.620
     0.000     0.025     0.997     1.000    -0.245     0.025     0.000   -19.620
     0.000     0.026     0.997     1.000    -0.255     0.026     0.000   -19.620
     0.000     0.027     0.996     1.000    -0.265     0.027     0.000   -19.620
     0.000     0.028     0.996     1.000    -0.275     0.028     0.000   -19.620
     0.000     0.029     0.996     1.000    -0.284     0.029     0.000   -19.620
     0.000     0.030     0.995     1.000    -0.294     0.030     0.000   -19.620
     0.000     0.031     0.995     1.000    -0.304     0.031     0.000   -19.620
     0.000     0.032     0.995     1.000    -0.314     0.032     0.000   -19.620
     0.000     0.033     0.994     1.000    -0.324     0.033     0.000   -19.620
     0.000     0.034     0.994     1.000    -0.334     0.034     0.000   -19.620
     0.000     0.035     0.994     1.000    -0.343     0.035     0.000   -19.620
     0.000     0.036     0.993     1.000    -0.353     0.036     0.000   -19.620
     0.000     0.037     0.993     1.000    -0.363     0.037     0.000   -19.620
     0.000     0.038     0.993     1.000    -0.373     0.038     0.000   -19.620
     0.000     0.039     0.992     1.000    -0.383     0.039     0.000   -19.620
     0.000     0.040     0.992     1.000    -0.392     0.040     0.000   -19.620
     0.000     0.041     0.992     1.000    -0.402     0.041     0.000   -19.620
     0.000     0.042     0.991     1.000    -0.412     0.042     0.000   -19.620
     0.000     0.043     0.991     1.000    -0.422     0.043     0.000   -19.620
     0.000     0.044     0.990     1.000    -0.432     0.044     0.000   -19.620
     0.000     0.045     0.990     1.000    -0.441     0.045     0.000   -19.620
     0.000     0.046     0.989     1.000    -0.451     0.046     0.000   -19.620
     0.000     0.047     0.989     1.000    -0.461     0.047     0.000   -19.620
     0.000     0.048     0.988     1.000    -0.471     0.048     0.000   -19.620
     0.000     0.049     0.988     1.000    -0.481     0.049     0.000   -19.620
     0.000     0.050     0.987     1.000    -0.491     0.050     0.000   -19.620
     0.000     0.051     0.987     1.000    -0.500     0.051     0.000   -19.620
     0.000     0.052     0.986     1.000    -0.510     0.052     0.000   -19.620
     0.000     0.053     0.986     1.000    -0.520     0.053     0.000   -19.620
     0.000     0.054     0.985     1.000    -0.530     0.054     0.000   -19.620
     0.000     0.055     0.985     1.000    -0.540     0.055     0.000   -19.620
     0.000     0.056     0.984     1.000    -0.549     0.056     0.000   -19.620
     0.000     0.057     0.984     1.000    -0.559     0.057     0.000   -19.620
     0.000     0.058     0.983     1.000    -0.569     0.058     0.000   -19.620
     0.000     0.059     0.983     1.000    -0.579     0.059     0.000   -19.620
     0.000     0.060     0.982     1.000    -0.589     0.060     0.000   -19.620
     0.000     0.061     0.981     1.000    -0.598     0.061     0.000   -19.620
     0.000     0.062     0.981     1.000    -0.608     0.062     0.000   -19.620
     0.000     0.063     0.980     1.000    -0.618     0.063     0.000   -19.620
     0.000     0.064     0.980     1.000    -0.628     0.064     0.000   -19.620
     0.000     0.065     0.979     1.000    -0.638     0.065     0.000   -19.620
     0.000     0.066     0.978     1.000    -0.647     0.066     0.000   -19.620
     0.000     0.067     0.978     1.000    -0.657     0.067     0.000   -19.620
     0.000     0.068     0.977     1.000    -0.667     0.068     0.000   -19.620
     0.000     0.069     0.976     1.000    -0.677     0.069     0.000   -19.620
     0.000     0.070     0.976     1.000    -0.687     0.070     0.000   -19.620
     0.000     0.071     0.975     1.000    -0.697     0.071     0.000   -19.620
     0.000     0.072     0.974     1.000    -0.706     0.072     0.000   -19.620
     0.000     0.073     0.974     1.000    -0.716     0.073     0.000   -19.620
     0.000     0.074     0.973     1.000    -0.726     0.074     0.000   -19.620
     0.000     0.075     0.972     1.000    -0.736     0.075     0.000   -19.620
     0.000     0.076     0.971     1.000    -0.746     0.076     0.000   -19.620
     0.000     0.077     0.971     1.000    -0.755     0.077     0.000   -19.620
     0.000     0.078     0.970     1.000    -0.765     0.078     0.000   -19.620
     0.000     0.079     0.969     1.000    -0.775     0.079     0.000   -19.620
     0.000     0.080     0.968     1.000    -0.785     0.080     0.000   -19.620
     0.000     0.081     0.967     1.000    -0.795     0.081     0.000   -19.620
     0.000     0.082     0.967     1.000    -0.804     0.082     0.000   -19.620
     0.000     0.083     0.966     1.000    -0.814     0.083     0.000   -19.620
     0.000     0.084     0.965     1.000    -0.824     0.084     0.000   -19.620
     0.000     0.085     0.964     1.000    -0.834     0.085     0.000   -19.620
     0.000     0.086     0.963     1.000    -0.844     0.086     0.000   -19.620
     0.000     0.087     0.962     1.000    -0.853     0.087     0.000   -19.620
     0.000     0.088     0.962     1.000    -0.863     0.088     0.000   -19.620
     0.000     0.089     0.961     1.000    -0.873     0.089     0.000   -19.620
     0.000     0.090     0.960     1.000    -0.883     0.090     0.000   -19.620
     0.000     0.091     0.959     1.000    -0.893     0.091     0.000   -19.620
     0.000     0.092     0.958     1.000    -0.903     0.092     0.000   -19.620
     0.000     0.093     0.957     1.000    -0.912     0.093     0.000   -19.620
     0.000     0.094     0.956     1.000    -0.922     0.094     0.000   -19.620
     0.000     0.095     0.955     1.000    -0.932     0.095     0.000   -19.620
     0.000     0.096     0.954     1.000    -0.942     0.096     0.000   -19.620
     0.000     0.097     0.953     1.000    -0.952     0.097     0.000   -19.620
     0.000     0.098     0.952     1.000    -0.961     0.098     0.000   -19.620
     0.000     0.099     0.951     1.000    -0.971     0.099     0.000   -19.620
     0.000     0.100     0.950     1.000    -0.981     0.100     0.000   -19.620
     0.000     0.101     0.949     1.000    -0.991     0.101     0.000   -19.620
     0.000     0.102     0.948     1.000    -1.001     0.102     0.000   -19.620
     0.000     0.103     0.947     1.000    -1.010     0.103     0.000   -19.620
     0.000     0.104     0.946     1.000    -1.020     0.104     0.000   -19.620
     0.000     0.105     0.945     1.000    -1.030     0.105     0.000   -19.620
     0.000     0.106     0.944     1.000    -1.040     0.106     0.000   -19.620
     0.000     0.107     0.943     1.000    -1.050     0.107     0.000   -19.620
     0.000     0.108     0.942     1.000    -1.059     0.108     0.000   -19.620
     0.000     0.109     0.941     1.000    -1.069     0.109     0.000   -19.620
     0.000     0.110     0.940     1.000    -1.079     0.110     0.000   -19.620
     0.000     0.111     0.939     1.000    -1.089     0.111     0.000   -19.620
     0.000     0.112     0.938     1.000    -1.099     0.112     0.000   -19.620
     0.000     0.113     0.937     1.000    -1.109     0.113     0.000   -19.620
     0.000     0.114     0.936     1.000    -1.118     0.114     0.000   -19.620
     0.000     0.115     0.935     1.000    -1.128     0.115     0.000   -19.620
     0.000     0.116     0.933     1.000    -1.138     0.116     0.000   -19.620
     0.000     0.117     0.932     1.000    -1.148     0.117     0.000   -19.620
     0.000     0.118     0.931     1.000    -1.158     0.118     0.000   -19.620
     0.000     0.119     0.930     1.000    -1.167     0.119     0.000   -19.620
     0.000     0.120     0.929     1.000    -1.177     0.120     0.000   -19.620
     0.000     0.121     0.928     1.000    -1.187     0.121     0.000   -19.620
     0.000     0.122     0.926     1.000    -1.197     0.122     0.000   -19.620
     0.000     0.123     0.925     1.000    -1.207     0.123     0.000   -19.620
     0.000     0.124     0.924     1.000    -1.216     0.124     0.000   -19.620
     0.000     0.125     0.923     1.000    -1.226     0.125     0.000   -19.620
     0.000     0.126     0.922     1.000    -1.236     0.126     0.000   -19.620
     0.000     0.127     0.920     1.000    -1.246     0.127     0.000   -19.620
     0.000     0.128     0.919     1.000    -1.256     0.128     0.000   -19.620
     0.000     0.129     0.918     1.000    -1.265     0.129     0.000   -19.620
     0.000     0.130     0.916     1.000    -1.275     0.130     0.000   -19.620
     0.000     0.131     0.915     1.000    -1.285     0.131     0.000   -19.620
     0.000     0.132     0.914     1.000    -1.295     0.132     0.000   -19.620
     0.000     0.133     0.913     1.000    -1.305     0.133     0.000   -19.620
     0.000     0.134     0.911     1.000    -1.315     0.134     0.000   -19.620
     0.000     0.135     0.910     1.000    -1.324     0.135     0.000   -19.620
     0.000     0.136     0.909     1.000    -1.334     0.136     0.000   -19.620
     0.000     0.137     0.907     1.000    -1.344     0.137     0.000   -19.620
     0.000     0.138     0.906     1.000    -1.354     0.138     0.000   -19.620
     0.000     0.139     0.905     1.000    -1.364     0.139     0.000   -19.620
     0.000     0.140     0.903     1.000    -1.373     0.140     0.000   -19.620
     0.000     0.141     0.902     1.000    -1.383     0.141     0.000   -19.620
     0.000     0.142     0.900     1.000    -1.393     0.142     0.000   -19.620
     0.000     0.143     0.899     1.000    -1.403     0.143     0.000   -19.620
     0.000     0.144     0.898     1.000    -1.413     0.144     0.000   -19.620
     0.000     0.145     0.896     1.000    -1.422     0.145     0.000   -19.620
     0.000     0.146     0.895     1.000    -1.432     0.146     0.000   -19.620
     0.000     0.147     0.893     1.000    -1.442     0.147     0.000   -19.620
     0.000     0.148     0.892     1.000    -1.452     0.148     0.000   -19.620
     0.000     0.149     0.890     1.000    -1.462     0.149     0.000   -19.620
     0.000     0.150     0.889     1.000    -1.471     0.150     0.000   -19.620
     0.000     0.151     0.887     1.000    -1.481     0.151     0.000   -19.620
     0.000     0.152     0.886     1.000    -1.491     0.152     0.000   -19.620
     0.000     0.153     0.884     1.000    -1.501     0.153     0.000   -19.620
     0.000     0.154     0.883     1.000    -1.511     0.154     0.000   -19.620
     0.000     0.155     0.881     1.000    -1.521     0.155     0.000   -19.620
     0.000     0.156     0.880     1.000    -1.530     0.156     0.000   -19.620
     0.000     0.157     0.878     1.000    -1.540     0.157     0.000   -19.620
     0.000     0.158     0.877     1.000    -1.550     0.158     0.000   -19.620
     0.000     0.159     0.875     1.000    -1.560     0.159     0.000   -19.620
     0.000     0.160     0.874     1.000    -1.570     0.160     0.000   -19.620
     0.000     0.161     0.872     1.000    -1.579     0.161     0.000   -19.620
     0.000     0.162     0.870     1.000    -1.589     0.162     0.000   -19.620
     0.000     0.163     0.869     1.000    -1.599     0.163     0.000   -19.620
     0.000     0.164     0.867     1.000    -1.609     0.164     0.000   -19.620
     0.000     0.165     0.866     1.000    -1.619     0.165     0.000   -19.620
     0.000     0.166     0.864     1.000    -1.628     0.166     0.000   -19.620
     0.000     0.167     0.862     1.000    -1.638     0.167     0.000   -19.620
     0.000     0.168     0.861     1.000    -1.648     0.168     0.000   -19.620
     0.000     0.169     0.859     1.000    -1.658     0.169     0.000   -19.620
     0.000     0.170     0.857     1.000    -1.668     0.170     0.000   -19.620
     0.000     0.171     0.856     1.000    -1.678     0.171     0.000   -19.620
     0.000     0.172     0.854     1.000    -1.687     0.172     0.000   -19.620
     0.000     0.173     0.852     1.000    -1.697     0.173     0.000   -19.620
     0.000     0.174     0.851     1.000    -1.707     0.174     0.000   -19.620
     0.000     0.175     0.849     1.000    -1.717     0.175     0.000   -19.620
     0.000     0.176     0.847     1.000    -1.727     0.176     0.000   -19.620
     0.000     0.177     0.845     1.000    -1.736     0.177     0.000   -19.620
     0.000     0.178     0.844     1.000    -1.746     0.178     0.000   -19.620
     0.000     0.179     0.842     1.000    -1.756     0.179     0.000   -19.620
     0.000     0.180     0.840     1.000    -1.766     0.180     0.000   -19.620
     0.000     0.181     0.838     1.000    -1.776     0.181     0.000   -19.620
     0.000     0.182     0.837     1.000    -1.785     0.182     0.000   -19.620
     0.000     0.183     0.835     1.000    -1.795     0.183     0.000   -19.620
     0.000     0.184     0.833     1.000    -1.805     0.184     0.000   -19.620
     0.000     0.185     0.831     1.000    -1.815     0.185     0.000   -19.620
     0.000     0.186     0.829     1.000    -1.825     0.186     0.000   -19.620
     0.000     0.187     0.828     1.000    -1.834     0.187     0.000   -19.620
     0.000     0.188     0.826     1.000    -1.844     0.188     0.000   -19.620
     0.000     0.189     0.824     1.000    -1.854     0.189     0.000   -19.620
     0.000     0.190     0.822     1.000    -1.864     0.190     0.000   -19.620
     0.000     0.191     0.820     1.000    -1.874     0.191     0.000   -19.620
     0.000     0.192     0.818     1.000    -1.884     0.192     0.000   -19.620
     0.000     0.193     0.816     1.000    -1.893     0.193     0.000   -19.620
     0.000     0.194     0.814     1.000    -1.903     0.194     0.000   -19.620
     0.000     0.195     0.813     1.000    -1.913     0.195     0.000   -19.620
     0.000     0.196     0.811     1.000    -1.923     0.196     0.000   -19.620
     0.000     0.197     0.809     1.000    -1.933     0.197     0.000   -19.620
     0.000     0.198     0.807     1.000    -1.942     0.198     0.000   -19.620
     0.000     0.199     0.805     1.000    -1.952     0.199     0.000   -19.620
     0.000     0.200     0.803     1.000    -1.962     0.200     0.000   -19.620
     0.000     0.201     0.801     1.000    -1.972     0.201     0.000   -19.620
     0.000     0.202     0.799     1.000    -1.982     0.202     0.000   -19.620
     0.000     0.203     0.797     1.000    -1.991     0.203     0.000   -19.620
     0.000     0.204     0.795     1.000    -2.001     0.204     0.000   -19.620
     0.000     0.205     0.793     1.000    -2.011     0.205     0.000   -19.620
     0.000     0.206     0.791     1.000    -2.021     0.206     0.000   -19.620
     0.000     0.207     0.789     1.000    -2.031     0.207     0.000   -19.620
     0.000     0.208     0.787     1.000    -2.040     0.208     0.000   -19.620
     0.000     0.209     0.785     1.000    -2.050     0.209     0.000   -19.620
     0.000     0.210     0.783     1.000    -2.060     0.210     0.000   -19.620
     0.000     0.211     0.781     1.000    -2.070     0.211     0.000   -19.620
     0.000     0.212     0.779     1.000    -2.080     0.212     0.000   -19.620
     0.000     0.213     0.776     1.000    -2.090     0.213     0.000   -19.620
     0.000     0.214     0.774     1.000    -2.099     0.214     0.000   -19.620
     0.000     0.215     0.772     1.000    -2.109     0.215     0.000   -19.620
     0.000     0.216     0.770     1.000    -2.119     0.216     0.000   -19.620
     0.000     0.217     0.768     1.000    -2.129     0.217     0.000   -19.620
     0.000     0.218     0.766     1.000    -2.139     0.218     0.000   -19.620
     0.000     0.219     0.764     1.000    -2.148     0.219     0.000   -19.620
     0.000     0.220     0.762     1.000    -2.158     0.220     0.000   -19.620
     0.000     0.221     0.759     1.000    -2.168     0.221     0.000   -19.620
     0.000     0.222     0.757     1.000    -2.178     0.222     0.000   -19.620
     0.000     0.223     0.755     1.000    -2.188     0.223     0.000   -19.620
     0.000     0.224     0.753     1.000    -2.197     0.224     0.000   -19.620
     0.000     0.225     0.751     1.000    -2.207     0.225     0.000   -19.620
     0.000     0.226     0.748     1.000    -2.217     0.226     0.000   -19.620
     0.000     0.227     0.746     1.000    -2.227     0.227     0.000   -19.620
     0.000     0.228     0.744     1.000    -2.237     0.228     0.000   -19.620
     0.000     0.229     0.742     1.000    -2.246     0.229     0.000   -19.620
     0.000     0.230     0.739     1.000    -2.256     0.230     0.000   -19.620
     0.000     0.231     0.737     1.000    -2.266     0.231     0.000   -19.620
     0.000     0.232     0.735     1.000    -2.276     0.232     0.000   -19.620
     0.000     0.233     0.733     1.000    -2.286     0.233     0.000   -19.620
     0.000     0.234     0.730     1.000    -2.296     0.234     0.000   -19.620
     0.000     0.235     0.728     1.000    -2.305     0.235     0.000   -19.620
     0.000     0.236     0.726     1.000    -2.315     0.236     0.000   -19.620
     0.000     0.237     0.723     1.000    -2.325     0.237     0.000   -19.620
     0.000     0.238     0.721     1.000    -2.335     0.238     0.000   -19.620
     0.000     0.239     0.719     1.000    -2.345     0.239     0.000   -19.620
     0.000     0.240     0.716     1.000    -2.354     0.240     0.000   -19.620
     0.000     0.241     0.714     1.000    -2.364     0.241     0.000   -19.620
     0.000     0.242     0.712     1.000    -2.374     0.242     0.000   -19.620
     0.000     0.243     0.709     1.000    -2.384     0.243     0.000   -19.620
     0.000     0.244     0.707     1.000    -2.394     0.244     0.000   -19.620
     0.000     0.245     0.704     1.000    -2.403     0.245     0.000   -19.620
     0.000     0.246     0.702     1.000    -2.413     0.246     0.000   -19.620
     0.000     0.247     0.700     1.000    -2.423     0.247     0.000   -19.620
     0.000     0.248     0.697     1.000    -2.433     0.248     0.000   -19.620
     0.000     0.249     0.695     1.000    -2.443     0.249     0.000   -19.620
     0.000     0.250     0.692     1.000    -2.452     0.250     0.000   -19.620
     0.000     0.251     0.690     1.000    -2.462     0.251     0.000   -19.620
     0.000     0.252     0.687     1.000    -2.472     0.252     0.000   -19.620
     0.000     0.253     0.685     1.000    -2.482     0.253     0.000   -19.620
     0.000     0.254     0.682     1.000    -2.492     0.254     0.000   -19.620
     0.000     0.255     0.680     1.000    -2.502     0.255     0.000   -19.620
     0.000     0.256     0.677     1.000    -2.511     0.256     0.000   -19.620
     0.000     0.257     0.675     1.000    -2.521     0.257     0.000   -19.620
     0.000     0.258     0.672     1.000    -2.531     0.258     0.000   -19.620
     0.000     0.259     0.670     1.000    -2.541     0.259     0.000   -19.620
     0.000     0.260     0.667     1.000    -2.551     0.260     0.000   -19.620
     0.000     0.261     0.665     1.000    -2.560     0.261     0.000   -19.620
     0.000     0.262     0.662     1.000    -2.570     0.262     0.000   -19.620
     0.000     0.263     0.659     1.000    -2.580     0.263     0.000   -19.620
     0.000     0.264     0.657     1.000    -2.590     0.264     0.000   -19.620
     0.000     0.265     0.654     1.000    -2.600     0.265     0.000   -19.620
     0.000     0.266     0.652     1.000    -2.609     0.266     0.000   -19.620
     0.000     0.267     0.649     1.000    -2.619     0.267     0.000   -19.620
     0.000     0.268     0.646     1.000    -2.629     0.268     0.000   -19.620
     0.000     0.269     0.644     1.000    -2.639     0.269     0.000   -19.620
     0.000     0.270     0.641     1.000    -2.649     0.270     0.000   -19.620
     0.000     0.271     0.638     1.000    -2.659     0.271     0.000   -19.620
     0.000     0.272     0.636     1.000    -2.668     0.272     0.000   -19.620
     0.000     0.273     0.633     1.000    -2.678     0.273     0.000   -19.620
     0.000     0.274     0.630     1.000    -2.688     0.274     0.000   -19.620
     0.000     0.275     0.628     1.000    -2.698     0.275     0.000   -19.620
     0.000     0.276     0.625     1.000    -2.708     0.276     0.000   -19.620
     0.000     0.277     0.622     1.000    -2.717     0.277     0.000   -19.620
     0.000     0.278     0.620     1.000    -2.727     0.278     0.000   -19.620
     0.000     0.279     0.617     1.000    -2.737     0.279     0.000   -19.620
     0.000     0.280     0.614     1.000    -2.747     0.280     0.000   -19.620
     0.000     0.281     0.611     1.000    -2.757     0.281     0.000   -19.620
     0.000     0.282     0.609     1.000    -2.766     0.282     0.000   -19.620
     0.000     0.283     0.606     1.000    -2.776     0.283     0.000   -19.620
     0.000     0.284     0.603     1.000    -2.786     0.284     0.000   -19.620
     0.000     0.285     0.600     1.000    -2.796     0.285     0.000   -19.620
     0.000     0.286     0.597     1.000    -2.806     0.286     0.000   -19.620
     0.000     0.287     0.595     1.000    -2.815     0.287     0.000   -19.620
     0.000     0.288     0.592     1.000    -2.825     0.288     0.000   -19.620
     0.000     0.289     0.589     1.000    -2.835     0.289     0.000   -19.620
     0.000     0.290     0.586     1.000    -2.845     0.290     0.000   -19.620
     0.000     0.291     0.583     1.000    -2.855     0.291     0.000   -19.620
     0.000     0.292     0.580     1.000    -2.865     0.292     0.000   -19.620
     0.000     0.293     0.577     1.000    -2.874     0.293     0.000   -19.620
     0.000     0.294     0.575     1.000    -2.884     0.294     0.000   -19.620
     0.000     0.295     0.572     1.000    -2.894     0.295     0.000   -19.620
     0.000     0.296     0.569     1.000    -2.904     0.296     0.000   -19.620
     0.000     0.297     0.566     1.000    -2.914     0.297     0.000   -19.620
     0.000     0.298     0.563     1.000    -2.923     0.298     0.000   -19.620
     0.000     0.299     0.560     1.000    -2.933     0.299     0.000   -19.620
     0.000     0.300     0.557     1.000    -2.943     0.300     0.000   -19.620
     0.000     0.301     0.554     1.000    -2.953     0.301     0.000   -19.620
     0.000     0.302     0.551     1.000    -2.963     0.302     0.000   -19.620
     0.000     0.303     0.548     1.000    -2.972     0.303     0.000   -19.620
     0.000     0.304     0.545     1.000    -2.982     0.304     0.000   -19.620
     0.000     0.305     0.542     1.000    -2.992     0.305     0.000   -19.620
     0.000     0.306     0.539     1.000    -3.002     0.306     0.000   -19.620
     0.000     0.307     0.536     1.000    -3.012     0.307     0.000   -19.620
     0.000     0.308     0.533     1.000    -3.021     0.308     0.000   -19.620
     0.000     0.309     0.530     1.000    -3.031     0.309     0.000   -19.620
     0.000     0.310     0.527     1.000    -3.041     0.310     0.000   -19.620
     0.000     0.311     0.524     1.000    -3.051     0.311     0.000   -19.620
     0.000     0.312     0.521     1.000    -3.061     0.312     0.000   -19.620
     0.000     0.313     0.518     1.000    -3.071     0.313     0.000   -19.620
     0.000     0.314     0.515     1.000    -3.080     0.314     0.000   -19.620
     0.000     0.315     0.512     1.000    -3.090     0.315     0.000   -19.620
     0.000     0.316     0.509     1.000    -3.100     0.316     0.000   -19.620
     0.000     0.317     0.506     1.000    -3.110     0.317     0.000   -19.620
     0.000     0.318     0.502     1.000    -3.120     0.318     0.000   -19.620
     0.000     0.319     0.499     1.000    -3.129     0.319     0.000   -19.620
     0.000     0.320     0.496     1.000    -3.139     0.320     0.000   -19.620
     0.000     0.321     0.493     1.000    -3.149     0.321     0.000   -19.620
     0.000     0.322     0.490     1.000    -3.159     0.322     0.000   -19.620
     0.000     0.323     0.487     1.000    -3.169     0.323     0.000   -19.620
     0.000     0.324     0.484     1.000    -3.178     0.324     0.000   -19.620
     0.000     0.325     0.480     1.000    -3.188     0.325     0.000   -19.620
     0.000     0.326     0.477     1.000    -3.198     0.326     0.000   -19.620
     0.000     0.327     0.474     1.000    -3.208     0.327     0.000   -19.620
     0.000     0.328     0.471     1.000    -3.218     0.328     0.000   -19.620
     0.000     0.329     0.467     1.000    -3.227     0.329     0.000   -19.620
     0.000     0.330     0.464     1.000    -3.237     0.330     0.000   -19.620
     0.000     0.331     0.461     1.000    -3.247     0.331     0.000   -19.620
     0.000     0.332     0.458     1.000    -3.257     0.332     0.000   -19.620
     0.000     0.333     0.454     1.000    -3.267     0.333     0.000   -19.620
     0.000     0.334     0.451     1.000    -3.277     0.334     0.000   -19.620
     0.000     0.335     0.448     1.000    -3.286     0.335     0.000   -19.620
     0.000     0.336     0.445     1.000    -3.296     0.336     0.000   -19.620
     0.000     0.337     0.441     1.000    -3.306     0.337     0.000   -19.620
     0.000     0.338     0.438     1.000    -3.316     0.338     0.000   -19.620
     0.000     0.339     0.435     1.000    -3.326     0.339     0.000   -19.620
     0.000     0.340     0.431     1.000    -3.335     0.340     0.000   -19.620
     0.000     0.341     0.428     1.000    -3.345     0.341     0.000   -19.620
     0.000     0.342     0.425     1.000    -3.355     0.342     0.000   -19.620
     0.000     0.343     0.421     1.000    -3.365     0.343     0.000   -19.620
     0.000     0.344     0.418     1.000    -3.375     0.344     0.000   -19.620
     0.000     0.345     0.414     1.000    -3.384     0.345     0.000   -19.620
     0.000     0.346     0.411     1.000    -3.394     0.346     0.000   -19.620
     0.000     0.347     0.408     1.000    -3.404     0.347     0.000   -19.620
     0.000     0.348     0.404     1.000    -3.414     0.348     0.000   -19.620
     0.000     0.349     0.401     1.000    -3.424     0.349     0.000   -19.620
     0.000     0.350     0.397     1.000    -3.433     0.350     0.000   -19.620
     0.000     0.351     0.394     1.000    -3.443     0.351     0.000   -19.620
     0.000     0.352     0.391     1.000    -3.453     0.352     0.000   -19.620
     0.000     0.353     0.387     1.000    -3.463     0.353     0.000   -19.620
     0.000     0.354     0.384     1.000    -3.473     0.354     0.000   -19.620
     0.000     0.355     0.380     1.000    -3.483     0.355     0.000   -19.620
     0.000     0.356     0.377     1.000    -3.492     0.356     0.000   -19.620
     0.000     0.357     0.373     1.000    -3.502     0.357     0.000   -19.620
     0.000     0.358     0.370     1.000    -3.512     0.358     0.000   -19.620
     0.000     0.359     0.366     1.000    -3.522     0.359     0.000   -19.620
     0.000     0.360     0.363     1.000    -3.532     0.360     0.000   -19.620
     0.000     0.361     0.359     1.000    -3.541     0.361     0.000   -19.620
     0.000     0.362     0.355     1.000    -3.551     0.362     0.000   -19.620
     0.000     0.363     0.352     1.000    -3.561     0.363     0.000   -19.620
     0.000     0.364     0.348     1.000    -3.571     0.364     0.000   -19.620
     0.000     0.365     0.345     1.000    -3.581     0.365     0.000   -19.620
     0.000     0.366     0.341     1.000    -3.590     0.366     0.000   -19.620
     0.000     0.367     0.338     1.000    -3.600     0.367     0.000   -19.620
     0.000     0.368     0.334     1.000    -3.610     0.368     0.000   -19.620
     0.000     0.369     0.330     1.000    -3.620     0.369     0.000   -19.620
     0.000     0.370     0.327     1.000    -3.630     0.370     0.000   -19.620
     0.000     0.371     0.323     1.000    -3.640     0.371     0.000   -19.620
     0.000     0.372     0.319     1.000    -3.649     0.372     0.000   -19.620
     0.000     0.373     0.316     1.000    -3.659     0.373     0.000   -19.620
     0.000     0.374     0.312     1.000    -3.669     0.374     0.000   -19.620
     0.000     0.375     0.308     1.000    -3.679     0.375     0.000   -19.620
     0.000     0.376     0.305     1.000    -3.689     0.376     0.000   -19.620
     0.000     0.377     0.301     1.000    -3.698     0.377     0.000   -19.620
     0.000     0.378     0.297     1.000    -3.708     0.378     0.000   -19.620
     0.000     0.379     0.294     1.000    -3.718     0.379     0.000   -19.620
     0.000     0.380     0.290     1.000    -3.728     0.380     0.000   -19.620
     0.000     0.381     0.286     1.000    -3.738     0.381     0.000   -19.620
     0.000     0.382     0.282     1.000    -3.747     0.382     0.000   -19.620
     0.000     0.383     0.279     1.000    -3.757     0.383     0.000   -19.620
     0.000     0.384     0.275     1.000    -3.767     0.384     0.000   -19.620
     0.000     0.385     0.271     1.000    -3.777     0.385     0.000   -19.620
     0.000     0.386     0.267     1.000    -3.787     0.386     0.000   -19.620
     0.000     0.387     0.263     1.000    -3.796     0.387     0.000   -19.620
     0.000     0.388     0.260     1.000    -3.806     0.388     0.000   -19.620
     0.000     0.389     0.256     1.000    -3.816     0.389     0.000   -19.620
     0.000     0.390     0.252     1.000    -3.826     0.390     0.000   -19.620
     0.000     0.391     0.248     1.000    -3.836     0.391     0.000   -19.620
     0.000     0.392     0.244     1.000    -3.846     0.392     0.000   -19.620
     0.000     0.393     0.241     1.000    -3.855     0.393     0.000   -19.620
     0.000     0.394     0.237     1.000    -3.865     0.394     0.000   -19.620
     0.000     0.395     0.233     1.000    -3.875     0.395     0.000   -19.620
     0.000     0.396     0.229     1.000    -3.885     0.396     0.000   -19.620
     0.000     0.397     0.225     1.000    -3.895     0.397     0.000   -19.620
     0.000     0.398     0.221     1.000    -3.904     0.398     0.000   -19.620
     0.000     0.399     0.217     1.000    -3.914     0.399     0.000   -19.620
     0.000     0.400     0.213     1.000    -3.924     0.400     0.000   -19.620
     0.000     0.401     0.209     1.000    -3.934     0.401     0.000   -19.620
     0.000     0.402     0.205     1.000    -3.944     0.402     0.000   -19.620
     0.000     0.403     0.201     1.000    -3.953     0.403     0.000   -19.620
     0.000     0.404     0.197     1.000    -3.963     0.404     0.000   -19.620
     0.000     0.405     0.193     1.000    -3.973     0.405     0.000   -19.620
     0.000     0.406     0.189     1.000    -3.983     0.406     0.000   -19.620
     0.000     0.407     0.185     1.000    -3.993     0.407     0.000   -19.620
     0.000     0.408     0.181     1.000    -4.002     0.408     0.000   -19.620
     0.000     0.409     0.177     1.000    -4.012     0.409     0.000   -19.620
     0.000     0.410     0.173     1.000    -4.022     0.410     0.000   -19.620
     0.000     0.411     0.169     1.000    -4.032     0.411     0.000   -19.620
     0.000     0.412     0.165     1.000    -4.042     0.412     0.000   -19.620
     0.000     0.413     0.161     1.000    -4.052     0.413     0.000   -19.620
     0.000     0.414     0.157     1.000    -4.061     0.414     0.000   -19.620
     0.000     0.415     0.153     1.000    -4.071     0.415     0.000   -19.620
     0.000     0.416     0.149     1.000    -4.081     0.416     0.000   -19.620
     0.000     0.417     0.145     1.000    -4.091     0.417     0.000   -19.620
     0.000     0.418     0.141     1.000    -4.101     0.418     0.000   -19.620
     0.000     0.419     0.137     1.000    -4.110     0.419     0.000   -19.620
     0.000     0.420     0.133     1.000    -4.120     0.420     0.000   -19.620
     0.000     0.421     0.129     1.000    -4.130     0.421     0.000   -19.620
     0.000     0.422     0.124     1.000    -4.140     0.422     0.000   -19.620
     0.000     0.423     0.120     1.000    -4.150     0.423     0.000   -19.620
     0.004     0.424     0.116     1.000    -4.159     0.424     0.000   -19.620
     0.008     0.425     0.112     1.000    -4.169     0.425     0.000   -19.620
     0.012     0.426     0.108     1.000    -4.179     0.426     0.000   -19.620
     0.016     0.427     0.104     1.000    -4.189     0.427     0.000   -19.620
     0.021     0.428     0.099     1.000    -4.199     0.428     0.000   -19.620
     0.025     0.429     0.095     1.000    -4.208     0.429     0.000   -19.620
     0.029     0.430     0.091     1.000    -4.218     0.430     0.000   -19.620
     0.033     0.431     0.087     1.000    -4.228     0.431     0.000   -19.620
     0.038     0.432     0.082     1.000    -4.238     0.432     0.000   -19.620
     0.042     0.433     0.078     1.000    -4.248     0.433     0.000   -19.620
     0.046     0.434     0.074     1.000    -4.258     0.434     0.000   -19.620
     0.050     0.435     0.070     1.000    -4.267     0.435     0.000   -19.620
     0.055     0.436     0.065     1.000    -4.277     0.436     0.000   -19.620
     0.059     0.437     0.061     1.000    -4.287     0.437     0.000   -19.620
     0.063     0.438     0.057     1.000    -4.297     0.438     0.000   -19.620
     0.067     0.439     0.053     1.000    -4.307     0.439     0.000   -19.620
     0.072     0.440     0.048     1.000    -4.316     0.440     0.000   -19.620
     0.076     0.441     0.044     1.000    -4.326     0.441     0.000   -19.620
     0.080     0.442     0.040     1.000    -4.336     0.442     0.000   -19.620
     0.085     0.443     0.035     1.000    -4.346     0.443     0.000   -19.620
     0.089     0.444     0.031     1.000    -4.356     0.444     0.000   -19.620
     0.093     0.445     0.027     1.000    -4.365     0.445     0.000   -19.620
     0.098     0.446     0.022     1.000    -4.375     0.446     0.000   -19.620
     0.102     0.447     0.018     1.000    -4.385     0.447     0.000   -19.620
     0.107     0.448     0.013     1.000    -4.395     0.448     0.000   -19.620
     0.111     0.449     0.009     1.000    -4.405     0.449     0.000   -19.620
     0.115     0.450     0.005     1.000    -4.414     0.450     0.000   -19.620
     0.120     0.451     0.000     1.000    -4.424     0.451     0.000   -19.620
     0.000     0.452    -0.004     1.000    -4.434     0.452     0.000   -19.620
     0.118     0.431     0.035   -20.630    38.826     0.453-43260.551 86521.102
     0.116     0.411     0.073   -20.630    38.817     0.454     0.000   -19.620
     0.113     0.390     0.112   -20.630    38.807     0.455     0.000   -19.620
     0.111     0.369     0.151   -20.630    38.797     0.456     0.000   -19.620
     0.109     0.349     0.190   -20.630    38.787     0.457     0.000   -19.620
     0.107     0.328     0.228   -20.630    38.777     0.458     0.000   -19.620
     0.105     0.308     0.267   -20.630    38.768     0.459     0.000   -19.620
     0.103     0.287     0.306   -20.630    38.758     0.460     0.000   -19.620
     0.100     0.266     0.345   -20.630    38.748     0.461     0.000   -19.620
     0.098     0.246     0.383   -20.630    38.738     0.462     0.000   -19.620
     0.096     0.225     0.422   -20.630    38.728     0.463     0.000   -19.620
     0.094     0.204     0.461   -20.630    38.719     0.464     0.000   -19.620
     0.092     0.184     0.500   -20.630    38.709     0.465     0.000   -19.620
     0.090     0.163     0.538   -20.630    38.699     0.466     0.000   -19.620
     0.088     0.143     0.577   -20.630    38.689     0.467     0.000   -19.620
     0.086     0.122     0.616   -20.630    38.679     0.468     0.000   -19.620
     0.084     0.101     0.654   -20.630    38.669     0.469     0.000   -19.620
     0.082     0.081     0.693   -20.630    38.660     0.470     0.000   -19.620
     0.080     0.060     0.732   -20.630    38.650     0.471     0.000   -19.620
     0.078     0.039     0.770   -20.630    38.640     0.472     0.000   -19.620
     0.076     0.019     0.809   -20.630    38.630     0.473     0.000   -19.620
     0.074    -0.002     0.848   -20.630    38.620     0.474     0.000   -19.620
     0.072    -0.022     0.886   -20.630    38.611     0.475     0.000   -19.620
     0.070    -0.043     0.925   -20.630    38.601     0.476     0.000   -19.620
     0.068    -0.064     0.963   -20.630    38.591     0.477     0.000   -19.620
     0.066    -0.084     1.002   -20.630    38.581     0.478     0.000   -19.620
     0.064    -0.105     1.041   -20.630    38.571     0.479     0.000   -19.620
     0.062    -0.126     1.079   -20.630    38.562     0.480     0.000   -19.620
     0.060    -0.146     1.118   -20.630    38.552     0.481     0.000   -19.620
     0.058    -0.167     1.156   -20.630    38.542     0.482     0.000   -19.620
     0.056    -0.188     1.195   -20.630    38.532     0.483     0.000   -19.620
     0.054    -0.208     1.233   -20.630    38.522     0.484     0.000   -19.620
     0.052    -0.229     1.272   -20.630    38.512     0.485     0.000   -19.620
     0.050    -0.249     1.310   -20.630    38.503     0.486     0.000   -19.620
     0.049    -0.270     1.349   -20.630    38.493     0.487     0.000   -19.620
     0.047    -0.291     1.387   -20.630    38.483     0.488     0.000   -19.620
     0.045    -0.311     1.426   -20.630    38.473     0.489     0.000   -19.620
     0.043    -0.332     1.464   -20.630    38.463     0.490     0.000   -19.620
     0.041    -0.353     1.503   -20.630    38.454     0.491     0.000   -19.620
     0.039    -0.373     1.541   -20.630    38.444     0.492     0.000   -19.620
     0.038    -0.394     1.580   -20.630    38.434     0.493     0.000   -19.620
     0.036    -0.414     1.618   -20.630    38.424     0.494     0.000   -19.620
     0.034    -0.435     1.656   -20.630    38.414     0.495     0.000   -19.620
     0.032    -0.456     1.695   -20.630    38.405     0.496     0.000   -19.620
     0.030    -0.476     1.733   -20.630    38.395     0.497     0.000   -19.620
     0.029    -0.497     1.772   -20.630    38.385     0.498     0.000   -19.620
     0.027    -0.518     1.810   -20.630    38.375     0.499     0.000   -19.620
     0.025    -0.538     1.848   -20.630    38.365     0.500     0.000   -19.620
     0.023    -0.559     1.887   -20.630    38.355     0.501     0.000   -19.620
     0.022    -0.580     1.925   -20.630    38.346     0.502     0.000   -19.620
     0.020    -0.600     1.963   -20.630    38.336     0.503     0.000   -19.620
     0.018    -0.621     2.002   -20.630    38.326     0.504     0.000   -19.620
     0.017    -0.641     2.040   -20.630    38.316     0.505     0.000   -19.620
     0.015    -0.662     2.078   -20.630    38.306     0.506     0.000   -19.620
     0.013    -0.683     2.117   -20.630    38.297     0.507     0.000   -19.620
     0.012    -0.703     2.155   -20.630    38.287     0.508     0.000   -19.620
     0.010    -0.724     2.193   -20.630    38.277     0.509     0.000   -19.620
     0.008    -0.745     2.231   -20.630    38.267     0.510     0.000   -19.620
     0.007    -0.765     2.270   -20.630    38.257     0.511     0.000   -19.620
     0.005    -0.786     2.308   -20.630    38.248     0.512     0.000   -19.620
     0.003    -0.806     2.346   -20.630    38.238     0.513     0.000   -19.620
     0.002    -0.827     2.384   -20.630    38.228     0.514     0.000   -19.620
     0.000    -0.848     2.423   -20.630    38.218     0.515     0.000   -19.620
     0.000    -0.868     2.461   -20.630    38.208     0.516     0.000   -19.620
     0.000    -0.889     2.499   -20.630    38.199     0.517     0.000   -19.620
     0.000    -0.910     2.537   -20.630    38.189     0.518     0.000   -19.620
     0.000    -0.930     2.575   -20.630    38.179     0.519     0.000   -19.620
     0.000    -0.951     2.614   -20.630    38.169     0.520     0.000   -19.620
     0.000    -0.971     2.652   -20.630    38.159     0.521     0.000   -19.620
     0.000    -0.992     2.690   -20.630    38.149     0.522     0.000   -19.620
     0.000    -1.013     2.728   -20.630    38.140     0.523     0.000   -19.620
     0.000    -1.033     2.766   -20.630    38.130     0.524     0.000   -19.620
     0.000    -1.054     2.804   -20.630    38.120     0.525     0.000   -19.620
     0.000    -1.075     2.842   -20.630    38.110     0.526     0.000   -19.620
     0.000    -1.095     2.880   -20.630    38.100     0.527     0.000   -19.620
     0.000    -1.116     2.919   -20.630    38.091     0.528     0.000   -19.620
     0.000    -1.137     2.957   -20.630    38.081     0.529     0.000   -19.620
     0.000    -1.157     2.995   -20.630    38.071     0.530     0.000   -19.620
     0.000    -1.178     3.033   -20.630    38.061     0.531     0.000   -19.620
     0.000    -1.198     3.071   -20.630    38.051     0.532     0.000   -19.620
     0.000    -1.219     3.109   -20.630    38.042     0.533     0.000   -19.620
     0.000    -1.240     3.147   -20.630    38.032     0.534     0.000   -19.620
     0.000    -1.260     3.185   -20.630    38.022     0.535     0.000   -19.620
     0.000    -1.281     3.223   -20.630    38.012     0.536     0.000   -19.620
     0.000    -1.302     3.261   -20.630    38.002     0.537     0.000   -19.620
     0.000    -1.322     3.299   -20.630    37.992     0.538     0.000   -19.620
     0.000    -1.343     3.337   -20.630    37.983     0.539     0.000   -19.620
     0.000    -1.363     3.375   -20.630    37.973     0.540     0.000   -19.620
     0.000    -1.384     3.413   -20.630    37.963     0.541     0.000   -19.620
     0.000    -1.405     3.451   -20.630    37.953     0.542     0.000   -19.620
     0.000    -1.425     3.489   -20.630    37.943     0.543     0.000   -19.620
     0.000    -1.446     3.527   -20.630    37.934     0.544     0.000   -19.620
     0.000    -1.467     3.565   -20.630    37.924     0.545     0.000   -19.620
     0.000    -1.487     3.602   -20.630    37.914     0.546     0.000   -19.620
     0.000    -1.508     3.640   -20.630    37.904     0.547     0.000   -19.620
     0.000    -1.529     3.678   -20.630    37.894     0.548     0.000   -19.620
     0.000    -1.549     3.716   -20.630    37.885     0.549     0.000   -19.620
     0.000    -1.570     3.754   -20.630    37.875     0.550     0.000   -19.620
     0.000    -1.590     3.792   -20.630    37.865     0.551     0.000   -19.620
     0.000    -1.611     3.830   -20.630    37.855     0.552     0.000   -19.620
     0.000    -1.632     3.868   -20.630    37.845     0.553     0.000   -19.620
     0.000    -1.652     3.905   -20.630    37.835     0.554     0.000   -19.620
     0.000    -1.673     3.943   -20.630    37.826     0.555     0.000   -19.620
     0.000    -1.694     3.981   -20.630    37.816     0.556     0.000   -19.620
     0.000    -1.714     4.019   -20.630    37.806     0.557     0.000   -19.620
     0.000    -1.735     4.057   -20.630    37.796     0.558     0.000   -19.620
     0.000    -1.755     4.094   -20.630    37.786     0.559     0.000   -19.620
     0.000    -1.776     4.132   -20.630    37.777     0.560     0.000   -19.620
     0.000    -1.797     4.170   -20.630    37.767     0.561     0.000   -19.620
     0.000    -1.817     4.208   -20.630    37.757     0.562     0.000   -19.620
     0.000    -1.838     4.246   -20.630    37.747     0.563     0.000   -19.620
     0.000    -1.859     4.283   -20.630    37.737     0.564     0.000   -19.620
     0.000    -1.879     4.321   -20.630    37.728     0.565     0.000   -19.620
     0.000    -1.900     4.359   -20.630    37.718     0.566     0.000   -19.620
     0.000    -1.920     4.396   -20.630    37.708     0.567     0.000   -19.620
     0.000    -1.941     4.434   -20.630    37.698     0.568     0.000   -19.620
     0.000    -1.962     4.472   -20.630    37.688     0.569     0.000   -19.620
     0.000    -1.982     4.509   -20.630    37.679     0.570     0.000   -19.620
     0.000    -2.003     4.547   -20.630    37.669     0.571     0.000   -19.620
     0.000    -2.024     4.585   -20.630    37.659     0.572     0.000   -19.620
     0.000    -2.044     4.622   -20.630    37.649     0.573     0.000   -19.620
     0.000    -2.065     4.660   -20.630    37.639     0.574     0.000   -19.620
     0.000    -2.086     4.698   -20.630    37.629     0.575     0.000   -19.620
     0.000    -2.106     4.735   -20.630    37.620     0.576     0.000   -19.620
     0.000    -2.127     4.773   -20.630    37.610     0.577     0.000   -19.620
     0.000    -2.147     4.811   -20.630    37.600     0.578     0.000   -19.620
     0.000    -2.168     4.848   -20.630    37.590     0.579     0.000   -19.620
     0.000    -2.189     4.886   -20.630    37.580     0.580     0.000   -19.620
     0.000    -2.209     4.923   -20.630    37.571     0.581     0.000   -19.620
     0.000    -2.230     4.961   -20.630    37.561     0.582     0.000   -19.620
     0.000    -2.251     4.998   -20.630    37.551     0.583     0.000   -19.620
     0.000    -2.271     5.036   -20.630    37.541     0.584     0.000   -19.620
     0.000    -2.292     5.073   -20.630    37.531     0.585     0.000   -19.620
     0.000    -2.312     5.111   -20.630    37.522     0.586     0.000   -19.620
     0.000    -2.333     5.148   -20.630    37.512     0.587     0.000   -19.620
     0.000    -2.354     5.186   -20.630    37.502     0.588     0.000   -19.620
     0.000    -2.374     5.223   -20.630    37.492     0.589     0.000   -19.620
     0.000    -2.395     5.261   -20.630    37.482     0.590     0.000   -19.620
     0.000    -2.416     5.298   -20.630    37.472     0.591     0.000   -19.620
     0.000    -2.436     5.336   -20.630    37.463     0.592     0.000   -19.620
     0.000    -2.457     5.373   -20.630    37.453     0.593     0.000   -19.620
     0.000    -2.478     5.411   -20.630    37.443     0.594     0.000   -19.620
     0.000    -2.498     5.448   -20.630    37.433     0.595     0.000   -19.620
     0.000    -2.519     5.486   -20.630    37.423     0.596     0.000   -19.620
     0.000    -2.539     5.523   -20.630    37.414     0.597     0.000   -19.620
     0.000    -2.560     5.560   -20.630    37.404     0.598     0.000   -19.620
     0.000    -2.581     5.598   -20.630    37.394     0.599     0.000   -19.620
     0.000    -2.601     5.635   -20.630    37.384     0.600     0.000   -19.620
     0.000    -2.622     5.673   -20.630    37.374     0.601     0.000   -19.620
     0.000    -2.643     5.710   -20.630    37.365     0.602     0.000   -19.620
     0.000    -2.663     5.747   -20.630    37.355     0.603     0.000   -19.620
     0.000    -2.684     5.785   -20.630    37.345     0.604     0.000   -19.620
     0.000    -2.704     5.822   -20.630    37.335     0.605     0.000   -19.620
     0.000    -2.725     5.859   -20.630    37.325     0.606     0.000   -19.620
     0.000    -2.746     5.897   -20.630    37.315     0.607     0.000   -19.620
     0.000    -2.766     5.934   -20.630    37.306     0.608     0.000   -19.620
     0.000    -2.787     5.971   -20.630    37.296     0.609     0.000   -19.620
     0.000    -2.808     6.009   -20.630    37.286     0.610     0.000   -19.620
     0.000    -2.828     6.046   -20.630    37.276     0.611     0.000   -19.620
     0.000    -2.849     6.083   -20.630    37.266     0.612     0.000   -19.620
     0.000    -2.869     6.120   -20.630    37.257     0.613     0.000   -19.620
     0.000    -2.890     6.158   -20.630    37.247     0.614     0.000   -19.620
     0.000    -2.911     6.195   -20.630    37.237     0.615     0.000   -19.620
     0.000    -2.931     6.232   -20.630    37.227     0.616     0.000   -19.620
     0.000    -2.952     6.269   -20.630    37.217     0.617     0.000   -19.620
     0.000    -2.973     6.306   -20.630    37.208     0.618     0.000   -19.620
     0.000    -2.993     6.344   -20.630    37.198     0.619     0.000   -19.620
     0.000    -3.014     6.381   -20.630    37.188     0.620     0.000   -19.620
     0.000    -3.035     6.418   -20.630    37.178     0.621     0.000   -19.620
     0.000    -3.055     6.455   -20.630    37.168     0.622     0.000   -19.620
     0.000    -3.076     6.492   -20.630    37.159     0.623     0.000   -19.620
     0.000    -3.096     6.530   -20.630    37.149     0.624     0.000   -19.620
     0.000    -3.117     6.567   -20.630    37.139     0.625     0.000   -19.620
     0.000    -3.138     6.604   -20.630    37.129     0.626     0.000   -19.620
     0.000    -3.158     6.641   -20.630    37.119     0.627     0.000   -19.620
     0.000    -3.179     6.678   -20.630    37.109     0.628     0.000   -19.620
     0.000    -3.200     6.715   -20.630    37.100     0.629     0.000   -19.620
     0.000    -3.220     6.752   -20.630    37.090     0.630     0.000   -19.620
     0.000    -3.241     6.789   -20.630    37.080     0.631     0.000   -19.620
     0.000    -3.261     6.826   -20.630    37.070     0.632     0.000   -19.620
     0.000    -3.282     6.863   -20.630    37.060     0.633     0.000   -19.620
     0.000    -3.303     6.900   -20.630    37.051     0.634     0.000   -19.620
     0.000    -3.323     6.938   -20.630    37.041     0.635     0.000   -19.620
     0.000    -3.344     6.975   -20.630    37.031     0.636     0.000   -19.620
     0.000    -3.365     7.012   -20.630    37.021     0.637     0.000   -19.620
     0.000    -3.385     7.049   -20.630    37.011     0.638     0.000   -19.620
     0.000    -3.406     7.086   -20.630    37.002     0.639     0.000   -19.620
     0.000    -3.426     7.123   -20.630    36.992     0.640     0.000   -19.620
     0.000    -3.447     7.160   -20.630    36.982     0.641     0.000   -19.620
     0.000    -3.468     7.197   -20.630    36.972     0.642     0.000   -19.620
     0.000    -3.488     7.233   -20.630    36.962     0.643     0.000   -19.620
     0.000    -3.509     7.270   -20.630    36.952     0.644     0.000   -19.620
     0.000    -3.530     7.307   -20.630    36.943     0.645     0.000   -19.620
     0.000    -3.550     7.344   -20.630    36.933     0.646     0.000   -19.620
     0.000    -3.571     7.381   -20.630    36.923     0.647     0.000   -19.620
     0.000    -3.592     7.418   -20.630    36.913     0.648     0.000   -19.620
     0.000    -3.612     7.455   -20.630    36.903     0.649     0.000   -19.620
     0.000    -3.633     7.492   -20.630    36.894     0.650     0.000   -19.620
     0.000    -3.653     7.529   -20.630    36.884     0.651     0.000   -19.620
     0.000    -3.674     7.566   -20.630    36.874     0.652     0.000   -19.620
     0.000    -3.695     7.603   -20.630    36.864     0.653     0.000   -19.620
     0.000    -3.715     7.639   -20.630    36.854     0.654     0.000   -19.620
     0.000    -3.736     7.676   -20.630    36.845     0.655     0.000   -19.620
     0.000    -3.757     7.713   -20.630    36.835     0.656     0.000   -19.620
     0.000    -3.777     7.750   -20.630    36.825     0.657     0.000   -19.620
     0.000    -3.798     7.787   -20.630    36.815     0.658     0.000   -19.620
     0.000    -3.818     7.824   -20.630    36.805     0.659     0.000   -19.620
     0.000    -3.839     7.860   -20.630    36.795     0.660     0.000   -19.620
     0.000    -3.860     7.897   -20.630    36.786     0.661     0.000   -19.620
     0.000    -3.880     7.934   -20.630    36.776     0.662     0.000   -19.620
     0.000    -3.901     7.971   -20.630    36.766     0.663     0.000   -19.620
     0.000    -3.922     8.007   -20.630    36.756     0.664     0.000   -19.620
     0.000    -3.942     8.044   -20.630    36.746     0.665     0.000   -19.620
     0.000    -3.963     8.081   -20.630    36.737     0.666     0.000   -19.620
     0.000    -3.984     8.118   -20.630    36.727     0.667     0.000   -19.620
     0.000    -4.004     8.154   -20.630    36.717     0.668     0.000   -19.620
     0.000    -4.025     8.191   -20.630    36.707     0.669     0.000   -19.620
     0.000    -4.045     8.228   -20.630    36.697     0.670     0.000   -19.620
     0.000    -4.066     8.264   -20.630    36.688     0.671     0.000   -19.620
     0.000    -4.087     8.301   -20.630    36.678     0.672     0.000   -19.620
     0.000    -4.107     8.338   -20.630    36.668     0.673     0.000   -19.620
     0.000    -4.128     8.374   -20.630    36.658     0.674     0.000   -19.620
     0.000    -4.149     8.411   -20.630    36.648     0.675     0.000   -19.620
     0.000    -4.169     8.448   -20.630    36.639     0.676     0.000   -19.620
     0.000    -4.190     8.484   -20.630    36.629     0.677     0.000   -19.620
     0.000    -4.210     8.521   -20.630    36.619     0.678     0.000   -19.620
     0.000    -4.231     8.558   -20.630    36.609     0.679     0.000   -19.620
     0.000    -4.252     8.594   -20.630    36.599     0.680     0.000   -19.620
     0.000    -4.272     8.631   -20.630    36.589     0.681     0.000   -19.620
     0.000    -4.293     8.667   -20.630    36.580     0.682     0.000   -19.620
     0.000    -4.314     8.704   -20.630    36.570     0.683     0.000   -19.620
     0.000    -4.334     8.741   -20.630    36.560     0.684     0.000   -19.620
     0.000    -4.355     8.777   -20.630    36.550     0.685     0.000   -19.620
     0.000    -4.375     8.814   -20.630    36.540     0.686     0.000   -19.620
     0.000    -4.396     8.850   -20.630    36.531     0.687     0.000   -19.620
     0.000    -4.417     8.887   -20.630    36.521     0.688     0.000   -19.620
     0.000    -4.437     8.923   -20.630    36.511     0.689     0.000   -19.620
     0.000    -4.458     8.960   -20.630    36.501     0.690     0.000   -19.620
     0.000    -4.479     8.996   -20.630    36.491     0.691     0.000   -19.620
     0.000    -4.499     9.033   -20.630    36.482     0.692     0.000   -19.620
     0.000    -4.520     9.069   -20.630    36.472     0.693     0.000   -19.620
     0.000    -4.541     9.106   -20.630    36.462     0.694     0.000   -19.620
     0.000    -4.561     9.142   -20.630    36.452     0.695     0.000   -19.620
     0.000    -4.582     9.178   -20.630    36.442     0.696     0.000   -19.620
     0.000    -4.602     9.215   -20.630    36.432     0.697     0.000   -19.620
     0.000    -4.623     9.251   -20.630    36.423     0.698     0.000   -19.620
     0.000    -4.644     9.288   -20.630    36.413     0.699     0.000   -19.620
     0.000    -4.664     9.324   -20.630    36.403     0.700     0.000   -19.620
     0.000    -4.685     9.361   -20.630    36.393     0.701     0.000   -19.620
     0.000    -4.706     9.397   -20.630    36.383     0.702     0.000   -19.620
     0.000    -4.726     9.433   -20.630    36.374     0.703     0.000   -19.620
     0.000    -4.747     9.470   -20.630    36.364     0.704     0.000   -19.620
     0.000    -4.767     9.506   -20.630    36.354     0.705     0.000   -19.620
     0.000    -4.788     9.542   -20.630    36.344     0.706     0.000   -19.620
     0.000    -4.809     9.579   -20.630    36.334     0.707     0.000   -19.620
     0.000    -4.829     9.615   -20.630    36.325     0.708     0.000   -19.620
     0.000    -4.850     9.651   -20.630    36.315     0.709     0.000   -19.620
     0.000    -4.871     9.688   -20.630    36.305     0.710     0.000   -19.620
     0.000    -4.891     9.724   -20.630    36.295     0.711     0.000   -19.620
     0.000    -4.912     9.760   -20.630    36.285     0.712     0.000   -19.620
     0.000    -4.933     9.796   -20.630    36.275     0.713     0.000   -19.620
     0.000    -4.953     9.833   -20.630    36.266     0.714     0.000   -19.620
     0.000    -4.974     9.869   -20.630    36.256     0.715     0.000   -19.620
     0.000    -4.994     9.905   -20.630    36.246     0.716     0.000   -19.620
     0.000    -5.015     9.941   -20.630    36.236     0.717     0.000   -19.620
     0.000    -5.036     9.978   -20.630    36.226     0.718     0.000   -19.620
     0.000    -5.056    10.014   -20.630    36.217     0.719     0.000   -19.620
     0.000    -5.077    10.050   -20.630    36.207     0.720     0.000   -19.620
     0.000    -5.098    10.086   -20.630    36.197     0.721     0.000   -19.620
     0.000    -5.118    10.123   -20.630    36.187     0.722     0.000   -19.620
     0.000    -5.139    10.159   -20.630    36.177     0.723     0.000   -19.620
     0.000    -5.159    10.195   -20.630    36.168     0.724     0.000   -19.620
     0.000    -5.180    10.231   -20.630    36.158     0.725     0.000   -19.620
     0.000    -5.201    10.267   -20.630    36.148     0.726     0.000   -19.620
     0.000    -5.221    10.303   -20.630    36.138     0.727     0.000   -19.620
     0.000    -5.242    10.339   -20.630    36.128     0.728     0.000   -19.620
     0.000    -5.263    10.376   -20.630    36.118     0.729     0.000   -19.620
     0.000    -5.283    10.412   -20.630    36.109     0.730     0.000   -19.620
     0.000    -5.304    10.448   -20.630    36.099     0.731     0.000   -19.620
     0.000    -5.324    10.484   -20.630    36.089     0.732     0.000   -19.620
     0.000    -5.345    10.520   -20.630    36.079     0.733     0.000   -19.620
     0.000    -5.366    10.556   -20.630    36.069     0.734     0.000   -19.620
     0.000    -5.386    10.592   -20.630    36.060     0.735     0.000   -19.620
     0.000    -5.407    10.628   -20.630    36.050     0.736     0.000   -19.620
     0.000    -5.428    10.664   -20.630    36.040     0.737     0.000   -19.620
     0.000    -5.448    10.700   -20.630    36.030     0.738     0.000   -19.620
     0.000    -5.469    10.736   -20.630    36.020     0.739     0.000   -19.620
     0.000    -5.490    10.772   -20.630    36.011     0.740     0.000   -19.620
     0.000    -5.510    10.808   -20.630    36.001     0.741     0.000   -19.620
     0.000    -5.531    10.844   -20.630    35.991     0.742     0.000   -19.620
     0.000    -5.551    10.880   -20.630    35.981     0.743     0.000   -19.620
     0.000    -5.572    10.916   -20.630    35.971     0.744     0.000   -19.620
     0.000    -5.593    10.952   -20.630    35.962     0.745     0.000   -19.620
     0.000    -5.613    10.988   -20.630    35.952     0.746     0.000   -19.620
     0.000    -5.634    11.024   -20.630    35.942     0.747     0.000   -19.620
     0.000    -5.655    11.060   -20.630    35.932     0.748     0.000   -19.620
     0.000    -5.675    11.096   -20.630    35.922     0.749     0.000   -19.620
     0.000    -5.696    11.132   -20.630    35.912     0.750     0.000   -19.620
     0.000    -5.716    11.168   -20.630    35.903     0.751     0.000   -19.620
     0.000    -5.737    11.204   -20.630    35.893     0.752     0.000   -19.620
     0.000    -5.758    11.239   -20.630    35.883     0.753     0.000   -19.620
     0.000    -5.778    11.275   -20.630    35.873     0.754     0.000   -19.620
     0.000    -5.799    11.311   -20.630    35.863     0.755     0.000   -19.620
     0.000    -5.820    11.347   -20.630    35.854     0.756     0.000   -19.620
     0.000    -5.840    11.383   -20.630    35.844     0.757     0.000   -19.620
     0.000    -5.861    11.419   -20.630    35.834     0.758     0.000   -19.620
     0.000    -5.882    11.455   -20.630    35.824     0.759     0.000   -19.620
     0.000    -5.902    11.490   -20.630    35.814     0.760     0.000   -19.620
     0.000    -5.923    11.526   -20.630    35.805     0.761     0.000   -19.620
     0.000    -5.943    11.562   -20.630    35.795     0.762     0.000   -19.620
     0.000    -5.964    11.598   -20.630    35.785     0.763     0.000   -19.620
     0.000    -5.985    11.634   -20.630    35.775     0.764     0.000   -19.620
     0.000    -6.005    11.669   -20.630    35.765     0.765     0.000   -19.620
     0.000    -6.026    11.705   -20.630    35.755     0.766     0.000   -19.620
     0.000    -6.047    11.741   -20.630    35.746     0.767     0.000   -19.620
     0.000    -6.067    11.777   -20.630    35.736     0.768     0.000   -19.620
     0.000    -6.088    11.812   -20.630    35.726     0.769     0.000   -19.620
     0.000    -6.108    11.848   -20.630    35.716     0.770     0.000   -19.620
     0.000    -6.129    11.884   -20.630    35.706     0.771     0.000   -19.620
     0.000    -6.150    11.919   -20.630    35.697     0.772     0.000   -19.620
     0.000    -6.170    11.955   -20.630    35.687     0.773     0.000   -19.620
     0.000    -6.191    11.991   -20.630    35.677     0.774     0.000   -19.620
     0.000    -6.212    12.026   -20.630    35.667     0.775     0.000   -19.620
     0.000    -6.232    12.062   -20.630    35.657     0.776     0.000   -19.620
     0.000    -6.253    12.098   -20.630    35.648     0.777     0.000   -19.620
     0.000    -6.273    12.133   -20.630    35.638     0.778     0.000   -19.620
     0.000    -6.294    12.169   -20.630    35.628     0.779     0.000   -19.620
     0.000    -6.315    12.205   -20.630    35.618     0.780     0.000   -19.620
     0.000    -6.335    12.240   -20.630    35.608     0.781     0.000   -19.620
     0.000    -6.356    12.276   -20.630    35.598     0.782     0.000   -19.620
     0.000    -6.377    12.311   -20.630    35.589     0.783     0.000   -19.620
     0.000    -6.397    12.347   -20.630    35.579     0.784     0.000   -19.620
     0.000    -6.418    12.383   -20.630    35.569     0.785     0.000   -19.620
     0.000    -6.439    12.418   -20.630    35.559     0.786     0.000   -19.620
     0.000    -6.459    12.454   -20.630    35.549     0.787     0.000   -19.620
     0.000    -6.480    12.489   -20.630    35.540     0.788     0.000   -19.620
     0.000    -6.500    12.525   -20.630    35.530     0.789     0.000   -19.620
     0.000    -6.521    12.560   -20.630    35.520     0.790     0.000   -19.620
     0.000    -6.542    12.596   -20.630    35.510     0.791     0.000   -19.620
     0.000    -6.562    12.631   -20.630    35.500     0.792     0.000   -19.620
     0.000    -6.583    12.667   -20.630    35.491     0.793     0.000   -19.620
     0.000    -6.604    12.702   -20.630    35.481     0.794     0.000   -19.620
     0.000    -6.624    12.738   -20.630    35.471     0.795     0.000   -19.620
     0.000    -6.645    12.773   -20.630    35.461     0.796     0.000   -19.620
     0.000    -6.665    12.809   -20.630    35.451     0.797     0.000   -19.620
     0.000    -6.686    12.844   -20.630    35.442     0.798     0.000   -19.620
     0.000    -6.707    12.879   -20.630    35.432     0.799     0.000   -19.620
     0.000    -6.727    12.915   -20.630    35.422     0.800     0.000   -19.620
     0.000    -6.748    12.950   -20.630    35.412     0.801     0.000   -19.620
     0.000    -6.769    12.986   -20.630    35.402     0.802     0.000   -19.620
     0.000    -6.789    13.021   -20.630    35.392     0.803     0.000   -19.620
     0.000    -6.810    13.056   -20.630    35.383     0.804     0.000   -19.620
     0.000    -6.831    13.092   -20.630    35.373     0.805     0.000   -19.620
     0.000    -6.851    13.127   -20.630    35.363     0.806     0.000   -19.620
     0.000    -6.872    13.163   -20.630    35.353     0.807     0.000   -19.620
     0.000    -6.892    13.198   -20.630    35.343     0.808     0.000   -19.620
     0.000    -6.913    13.233   -20.630    35.334     0.809     0.000   -19.620
     0.000    -6.934    13.269   -20.630    35.324     0.810     0.000   -19.620
     0.000    -6.954    13.304   -20.630    35.314     0.811     0.000   -19.620
     0.000    -6.975    13.339   -20.630    35.304     0.812     0.000   -19.620
     0.000    -6.996    13.374   -20.630    35.294     0.813     0.000   -19.620
     0.000    -7.016    13.410   -20.630    35.285     0.814     0.000   -19.620
     0.000    -7.037    13.445   -20.630    35.275     0.815     0.000   -19.620
     0.000    -7.057    13.480   -20.630    35.265     0.816     0.000   -19.620
     0.000    -7.078    13.516   -20.630    35.255     0.817     0.000   -19.620
     0.000    -7.099    13.551   -20.630    35.245     0.818     0.000   -19.620
     0.000    -7.119    13.586   -20.630    35.235     0.819     0.000   -19.620
     0.000    -7.140    13.621   -20.630    35.226     0.820     0.000   -19.620
     0.000    -7.161    13.656   -20.630    35.216     0.821     0.000   -19.620
     0.000    -7.181    13.692   -20.630    35.206     0.822     0.000   -19.620
     0.000    -7.202    13.727   -20.630    35.196     0.823     0.000   -19.620
     0.000    -7.222    13.762   -20.630    35.186     0.824     0.000   -19.620
     0.000    -7.243    13.797   -20.630    35.177     0.825     0.000   -19.620
     0.000    -7.264    13.832   -20.630    35.167     0.826     0.000   -19.620
     0.000    -7.284    13.868   -20.630    35.157     0.827     0.000   -19.620
     0.000    -7.305    13.903   -20.630    35.147     0.828     0.000   -19.620
     0.000    -7.326    13.938   -20.630    35.137     0.829     0.000   -19.620
     0.000    -7.346    13.973   -20.630    35.128     0.830     0.000   -19.620
     0.000    -7.367    14.008   -20.630    35.118     0.831     0.000   -19.620
     0.000    -7.388    14.043   -20.630    35.108     0.832     0.000   -19.620
     0.000    -7.408    14.078   -20.630    35.098     0.833     0.000   -19.620
     0.000    -7.429    14.113   -20.630    35.088     0.834     0.000   -19.620
     0.000    -7.449    14.148   -20.630    35.078     0.835     0.000   -19.620
     0.000    -7.470    14.184   -20.630    35.069     0.836     0.000   -19.620
     0.000    -7.491    14.219   -20.630    35.059     0.837     0.000   -19.620
     0.000    -7.511    14.254   -20.630    35.049     0.838     0.000   -19.620
     0.000    -7.532    14.289   -20.630    35.039     0.839     0.000   -19.620
     0.000    -7.553    14.324   -20.630    35.029     0.840     0.000   -19.620
     0.002    -7.573    14.359   -20.630    35.020     0.841     0.000   -19.620
     0.003    -7.594    14.394   -20.630    35.010     0.842     0.000   -19.620
     0.005    -7.614    14.429   -20.630    35.000     0.843     0.000   -19.620
     0.007    -7.635    14.464   -20.630    34.990     0.844     0.000   -19.620
     0.008    -7.656    14.499   -20.630    34.980     0.845     0.000   -19.620
     0.010    -7.676    14.534   -20.630    34.971     0.846     0.000   -19.620
     0.012    -7.697    14.569   -20.630    34.961     0.847     0.000   -19.620
     0.013    -7.718    14.604   -20.630    34.951     0.848     0.000   -19.620
     0.015    -7.738    14.639   -20.630    34.941     0.849     0.000   -19.620
     0.017    -7.759    14.673   -20.630    34.931     0.850     0.000   -19.620
     0.018    -7.780    14.708   -20.630    34.922     0.851     0.000   -19.620
     0.020    -7.800    14.743   -20.630    34.912     0.852     0.000   -19.620
     0.022    -7.821    14.778   -20.630    34.902     0.853     0.000   -19.620
     0.023    -7.841    14.813   -20.630    34.892     0.854     0.000   -19.620
     0.025    -7.862    14.848   -20.630    34.882     0.855     0.000   -19.620
     0.027    -7.883    14.883   -20.630    34.872     0.856     0.000   -19.620
     0.029    -7.903    14.918   -20.630    34.863     0.857     0.000   -19.620
     0.030    -7.924    14.953   -20.630    34.853     0.858     0.000   -19.620
     0.032    -7.945    14.987   -20.630    34.843     0.859     0.000   -19.620
     0.034    -7.965    15.022   -20.630    34.833     0.860     0.000   -19.620
     0.036    -7.986    15.057   -20.630    34.823     0.861     0.000   -19.620
     0.038    -8.006    15.092   -20.630    34.814     0.862     0.000   -19.620
     0.039    -8.027    15.127   -20.630    34.804     0.863     0.000   -19.620
     0.041    -8.048    15.161   -20.630    34.794     0.864     0.000   -19.620
     0.043    -8.068    15.196   -20.630    34.784     0.865     0.000   -19.620
     0.045    -8.089    15.231   -20.630    34.774     0.866     0.000   -19.620
     0.047    -8.110    15.266   -20.630    34.765     0.867     0.000   -19.620
     0.049    -8.130    15.301   -20.630    34.755     0.868     0.000   -19.620
     0.050    -8.151    15.335   -20.630    34.745     0.869     0.000   -19.620
     0.052    -8.171    15.370   -20.630    34.735     0.870     0.000   -19.620
     0.054    -8.192    15.405   -20.630    34.725     0.871     0.000   -19.620
     0.056    -8.213    15.439   -20.630    34.715     0.872     0.000   -19.620
     0.058    -8.233    15.474   -20.630    34.706     0.873     0.000   -19.620
     0.060    -8.254    15.509   -20.630    34.696     0.874     0.000   -19.620
     0.062    -8.275    15.544   -20.630    34.686     0.875     0.000   -19.620
     0.064    -8.295    15.578   -20.630    34.676     0.876     0.000   -19.620
     0.066    -8.316    15.613   -20.630    34.666     0.877     0.000   -19.620
     0.068    -8.337    15.648   -20.630    34.657     0.878     0.000   -19.620
     0.070    -8.357    15.682   -20.630    34.647     0.879     0.000   -19.620
     0.072    -8.378    15.717   -20.630    34.637     0.880     0.000   -19.620
     0.074    -8.398    15.751   -20.630    34.627     0.881     0.000   -19.620
     0.076    -8.419    15.786   -20.630    34.617     0.882     0.000   -19.620
     0.078    -8.440    15.821   -20.630    34.608     0.883     0.000   -19.620
     0.080    -8.460    15.855   -20.630    34.598     0.884     0.000   -19.620
     0.082    -8.481    15.890   -20.630    34.588     0.885     0.000   -19.620
     0.084    -8.502    15.924   -20.630    34.578     0.886     0.000   -19.620
     0.086    -8.522    15.959   -20.630    34.568     0.887     0.000   -19.620
     0.088    -8.543    15.994   -20.630    34.558     0.888     0.000   -19.620
     0.090    -8.563    16.028   -20.630    34.549     0.889     0.000   -19.620
     0.092    -8.584    16.063   -20.630    34.539     0.890     0.000   -19.620
     0.094    -8.605    16.097   -20.630    34.529     0.891     0.000   -19.620
     0.096    -8.625    16.132   -20.630    34.519     0.892     0.000   -19.620
     0.098    -8.646    16.166   -20.630    34.509     0.893     0.000   -19.620
     0.101    -8.667    16.201   -20.630    34.500     0.894     0.000   -19.620
     0.103    -8.687    16.235   -20.630    34.490     0.895     0.000   -19.620
     0.105    -8.708    16.270   -20.630    34.480     0.896     0.000   -19.620
     0.107    -8.728    16.304   -20.630    34.470     0.897     0.000   -19.620
     0.109    -8.749    16.339   -20.630    34.460     0.898     0.000   -19.620
     0.111    -8.770    16.373   -20.630    34.451     0.899     0.000   -19.620
     0.113    -8.790    16.408   -20.630    34.441     0.900     0.000   -19.620
     0.116    -8.811    16.442   -20.630    34.431     0.901     0.000   -19.620
     0.118    -8.832    16.476   -20.630    34.421     0.902     0.000   -19.620
     0.000    -8.852    16.511   -20.630    34.411     0.903     0.000   -19.620
     0.119    -8.873    16.545   -20.630    34.402     0.904     0.000   -19.620
     0.118    -8.894    16.580   -20.630    34.392     0.905     0.000   -19.620
     0.117    -8.914    16.614   -20.630    34.382     0.906     0.000   -19.620
     0.116    -8.935    16.648   -20.630    34.372     0.907     0.000   -19.620
     0.115    -8.955    16.683   -20.630    34.362     0.908     0.000   -19.620
     0.114    -8.976    16.717   -20.630    34.352     0.909     0.000   -19.620
     0.113    -8.997    16.751   -20.630    34.343     0.910     0.000   -19.620
     0.112    -9.017    16.786   -20.630    34.333     0.911     0.000   -19.620
     0.111    -9.038    16.820   -20.630    34.323     0.912     0.000   -19.620
     0.110    -9.059    16.854   -20.630    34.313     0.913     0.000   -19.620
     0.109    -9.079    16.889   -20.630    34.303     0.914     0.000   -19.620
     0.108    -9.100    16.923   -20.630    34.294     0.915     0.000   -19.620
     0.107    -9.120    16.957   -20.630    34.284     0.916     0.000   -19.620
     0.106    -9.141    16.992   -20.630    34.274     0.917     0.000   -19.620
     0.105    -9.162    17.026   -20.630    34.264     0.918     0.000   -19.620
     0.104    -9.182    17.060   -20.630    34.254     0.919     0.000   -19.620
     0.103    -9.203    17.094   -20.630    34.245     0.920     0.000   -19.620
     0.102    -9.224    17.129   -20.630    34.235     0.921     0.000   -19.620
     0.101    -9.244    17.163   -20.630    34.225     0.922     0.000   -19.620
     0.100    -9.265    17.197   -20.630    34.215     0.923     0.000   -19.620
     0.099    -9.285    17.231   -20.630    34.205     0.924     0.000   -19.620
     0.098    -9.306    17.265   -20.630    34.195     0.925     0.000   -19.620
     0.097    -9.327    17.300   -20.630    34.186     0.926     0.000   -19.620
     0.096    -9.347    17.334   -20.630    34.176     0.927     0.000   -19.620
     0.096    -9.368    17.368   -20.630    34.166     0.928     0.000   -19.620
     0.095    -9.389    17.402   -20.630    34.156     0.929     0.000   -19.620
     0.094    -9.409    17.436   -20.630    34.146     0.930     0.000   -19.620
     0.093    -9.430    17.470   -20.630    34.137     0.931     0.000   -19.620
     0.092    -9.451    17.504   -20.630    34.127     0.932     0.000   -19.620
     0.091    -9.471    17.539   -20.630    34.117     0.933     0.000   -19.620
     0.091    -9.492    17.573   -20.630    34.107     0.934     0.000   -19.620
     0.090    -9.512    17.607   -20.630    34.097     0.935     0.000   -19.620
     0.089    -9.533    17.641   -20.630    34.088     0.936     0.000   -19.620
     0.088    -9.554    17.675   -20.630    34.078     0.937     0.000   -19.620
     0.088    -9.574    17.709   -20.630    34.068     0.938     0.000   -19.620
     0.087    -9.595    17.743   -20.630    34.058     0.939     0.000   -19.620
     0.086    -9.616    17.777   -20.630    34.048     0.940     0.000   -19.620
     0.085    -9.636    17.811   -20.630    34.038     0.941     0.000   -19.620
     0.085    -9.657    17.845   -20.630    34.029     0.942     0.000   -19.620
     0.084    -9.677    17.879   -20.630    34.019     0.943     0.000   -19.620
     0.083    -9.698    17.913   -20.630    34.009     0.944     0.000   -19.620
     0.083    -9.719    17.947   -20.630    33.999     0.945     0.000   -19.620
     0.082    -9.739    17.981   -20.630    33.989     0.946     0.000   -19.620
     0.081    -9.760    18.015   -20.630    33.980     0.947     0.000   -19.620
     0.080    -9.781    18.049   -20.630    33.970     0.948     0.000   -19.620
     0.080    -9.801    18.083   -20.630    33.960     0.949     0.000   -19.620
     0.079    -9.822    18.117   -20.630    33.950     0.950     0.000   -19.620
     0.079    -9.842    18.151   -20.630    33.940     0.951     0.000   -19.620
     0.078    -9.863    18.185   -20.630    33.931     0.952     0.000   -19.620
     0.077    -9.884    18.219   -20.630    33.921     0.953     0.000   -19.620
     0.077    -9.904    18.253   -20.630    33.911     0.954     0.000   -19.620
     0.076    -9.925    18.287   -20.630    33.901     0.955     0.000   -19.620
     0.076    -9.946    18.321   -20.630    33.891     0.956     0.000   -19.620
     0.075    -9.966    18.354   -20.630    33.881     0.957     0.000   -19.620
     0.074    -9.987    18.388   -20.630    33.872     0.958     0.000   -19.620
     0.074   -10.008    18.422   -20.630    33.862     0.959     0.000   -19.620
     0.073   -10.028    18.456   -20.630    33.852     0.960     0.000   -19.620
     0.073   -10.049    18.490   -20.630    33.842     0.961     0.000   -19.620
     0.072   -10.069    18.524   -20.630    33.832     0.962     0.000   -19.620
     0.072   -10.090    18.558   -20.630    33.823     0.963     0.000   -19.620
     0.071   -10.111    18.591   -20.630    33.813     0.964     0.000   -19.620
     0.071   -10.131    18.625   -20.630    33.803     0.965     0.000   -19.620
     0.070   -10.152    18.659   -20.630    33.793     0.966     0.000   -19.620
     0.070   -10.173    18.693   -20.630    33.783     0.967     0.000   -19.620
     0.069   -10.193    18.726   -20.630    33.774     0.968     0.000   -19.620
     0.069   -10.214    18.760   -20.630    33.764     0.969     0.000   -19.620
     0.068   -10.234    18.794   -20.630    33.754     0.970     0.000   -19.620
     0.068   -10.255    18.828   -20.630    33.744     0.971     0.000   -19.620
     0.068   -10.276    18.861   -20.630    33.734     0.972     0.000   -19.620
     0.067   -10.296    18.895   -20.630    33.725     0.973     0.000   -19.620
     0.067   -10.317    18.929   -20.630    33.715     0.974     0.000   -19.620
     0.066   -10.338    18.963   -20.630    33.705     0.975     0.000   -19.620
     0.066   -10.358    18.996   -20.630    33.695     0.976     0.000   -19.620
     0.066   -10.379    19.030   -20.630    33.685     0.977     0.000   -19.620
     0.065   -10.400    19.064   -20.630    33.675     0.978     0.000   -19.620
     0.065   -10.420    19.097   -20.630    33.666     0.979     0.000   -19.620
     0.064   -10.441    19.131   -20.630    33.656     0.980     0.000   -19.620
     0.064   -10.461    19.165   -20.630    33.646     0.981     0.000   -19.620
     0.064   -10.482    19.198   -20.630    33.636     0.982     0.000   -19.620
     0.063   -10.503    19.232   -20.630    33.626     0.983     0.000   -19.620
     0.063   -10.523    19.266   -20.630    33.617     0.984     0.000   -19.620
     0.063   -10.544    19.299   -20.630    33.607     0.985     0.000   -19.620
     0.063   -10.565    19.333   -20.630    33.597     0.986     0.000   -19.620
     0.062   -10.585    19.366   -20.630    33.587     0.987     0.000   -19.620
     0.062   -10.606    19.400   -20.630    33.577     0.988     0.000   -19.620
     0.062   -10.626    19.433   -20.630    33.568     0.989     0.000   -19.620
     0.062   -10.647    19.467   -20.630    33.558     0.990     0.000   -19.620
     0.061   -10.668    19.501   -20.630    33.548     0.991     0.000   -19.620
     0.061   -10.688    19.534   -20.630    33.538     0.992     0.000   -19.620
     0.061   -10.709    19.568   -20.630    33.528     0.993     0.000   -19.620
     0.061   -10.730    19.601   -20.630    33.518     0.994     0.000   -19.620
     0.060   -10.750    19.635   -20.630    33.509     0.995     0.000   -19.620
     0.060   -10.771    19.668   -20.630    33.499     0.996     0.000   -19.620
     0.060   -10.791    19.702   -20.630    33.489     0.997     0.000   -19.620
     0.060   -10.812    19.735   -20.630    33.479     0.998     0.000   -19.620
     0.060   -10.833    19.769   -20.630    33.469     0.999     0.000   -19.620
